	ketene (A)	ethanol (A)	Acetaldehyde (A)	acetone (A)	Acetic acid (A)	acetic anhydride (A)				
Injection date	Peak area	Peak area	Peak area	Peak area	Peak area	Peak area	T	H2	N2	AA
0	6684.434	2549.782	37964.82	48205.165	95972.162	1433.066	300	28	109	7
4	4338.873	903.541	28512.629	18981.494	108720.16	279.325	300	28	109	7
8	3861.377	570.936	27061.215	25035.787	64754.01	248.161	300	28	109	7
12	6512.781	7205.289	26297.951	500853.697	9914215.246	68271.195	300	28	109	7
16	8818.598	11899.606	31855.62	505602.868	9779841.819	66044.477	300	28	109	7
20	6419.554	9879.134	21848.947	489972.962	10583545.16	89585.042	300	28	109	7
24	6598.704	9765.2	21857.119	496849.829	9274819.704	57948.443	300	28	109	7
28	17659.058	12904.781	24055.946	485145.033	11247611.15	84687.292	300	28	109	7
32	6262.61	9812.555	20478.878	477665.426	9229775.752	60975.219	300	28	109	7
36	28813.466	13981.563	24246.051	483118.684	10829486.8	80669.352	300	28	109	7
40	6555.64	10647.212	20389.989	473790.283	9106083.224	68051.089	300	28	109	7
44	9166.003	14786.131	27329.057	472788.604	10465813.31	80877.663	300	28	109	7
48	8044.707	10731.94	21066.083	464265.259	9129838.875	68348.268	300	28	109	7
52	6182.176	11997.555	19797.539	464315.9	10465697.14	79118.71	300	28	109	7
56	7713.345	11441.985	20452.387	449522.945	8851407.911	84940.758	300	28	109	7
60	6349.533	12450.883	20294.948	464575.121	10600157.87	83363.436	300	28	109	7
64	7531.91	12246.854	22501.206	447715.527	8797737.445	89101.388	300	28	109	7
68	6429.048	13192.628	17946.678	461143.881	12369088.77	99336.516	300	28	109	7
72	8054.822	11434.959	22122.769	444784.376	8253754.712	63682.033	300	28	109	7
76	5916.478	11227.145	17020.524	455755.183	10226820.04	80476.496	300	28	109	7
80	5829.717	10105.683	18169.92	449617.276	8395355.445	63166.224	300	28	109	7
84	6032.174	12373.579	18798.86	449195.423	10888094.32	116134.533	300	28	109	7
88	5741.321	9885.779	19424.403	444650.795	7670936.985	61665.98	300	28	109	7
92	6281.474	13247.902	19748.628	453912.834	11073814.29	112486.734	300	28	109	7
96	6067.96	11813.39	20699.786	432608.545	8976407.984	73324.89	300	28	109	7
100	7621.572	15433.04	23721.525	448782.046	10507971.1	84126.027	300	28	109	7
104	29735.361	14629.749	25496.918	428577.32	9869859.706	79749.275	300	28	109	7
108	7700.652	15844.646	23344.664	444684.701	10758548.97	88147.557	300	28	109	7
112	6965.468	14023.96	22726.281	447446.514	10120961.35	80013.354	300	28	109	7
116	6145.972	13447.771	20194.832	446666.348	11211379.8	92372.144	300	28	109	7
120	5967.971	12379.25	18967.141	432329.305	10579247.97	178.723	300	28	109	7
124	5817.778	12375.072	18290.128	438493.164	11119266.67	93106.372	300	28	109	7
128	6781.694	12811.555	19673.074	436254.762	11085573.65	102991.697	300	28	109	7
132	8132.025	14782.124	22473.086	438737.911	11000107.26	90089.195	300	28	109	7
136	5969.18	13247.5	20401.92	433597.44	10900481.02	101661.788	300	28	109	7
140	18098.043	16491.083	29412.692	445823.601	10788488.67	90448.639	300	28	109	7
144	5977.835	12603.967	22060.599	430215.362	9305421.453	78333.47	300	28	109	7
148	5974.461	13626.302	21167.78	435087.564	10915529.9	92783.244	300	28	109	7
152	6322.602	13462.802	22657.42	435833.271	10437339.26	88622.71	300	28	109	7
156	6070.445	13970.166	22245.46	426463.444	11156166.1	92311.961	300	28	109	7
160	7341.086	15303.674	24416.683	432841.885	10987557.8	91320.152	300	28	109	7
164	6017.793	13365.112	22561.545	430196.354	10416920.93	85434.1	300	28	109	7
168	13786.165	16367.41	29133.058	473253.829	11050059.39	92906.876	300	28	109	7
172	7828.332	12992.061	23802.205	715474.451	10206121.42	79983.379	310	28	109	7
176	7325.256	13373.019	22956.171	615291.212	10550083.88	86232.491	310	28	109	7
180	7489.037	12761.991	23880.72	658882.9	9847866.208	87242.388	310	28	109	7
184	11029.334	16866.304	31038.357	690720.479	10581820.35	84359.816	310	28	109	7
188	8700.083	13987.818	26486.877	665984.352	9892908.38	84092.034	310	28	109	7
192	7564.473	12785.828	23099.348	667438.508	9996020.423	78567.836	310	28	109	7
196	8527.58	13837.942	24040.395	663191.423	10380309.74	101077.46	310	28	109	7
200	7642.686	13706.905	22260.798	685151.569	10944938.43	88503.239	310	28	109	7
204	29896.106	15104.505	27617.993	667847.111	9234152.272	68774.13	310	28	109	7
208	7492.211	12865.487	21609.463	669989.975	10474550.58	83340.271	310	28	109	7
212	7756.994	12382.471	24731.872	664679.267	9097390.926	72927.993	310	28	109	7
216	7507.615	13043.029	22997.001	667685.074	10149726.12	81803.155	310	28	109	7
220	7176.503	11713.397	21636.914	662230.914	9574345.312	72037.033	310	28	109	7
224	7697.16	12637.845	22213.845	653256.58	10163063.21	108130.055	310	28	109	7
228	7212.065	12299.235	21674.297	660555.311	9916644.057	77081.646	310	28	109	7
232	7418.929	12480.258	22233.848	658332.659	9851021.634	84463.621	310	28	109	7
236	7352.611	12774.589	20948.188	676603.493	10319342.89	77208.246	310	28	109	7
240	28218.654	14246.336	25198.284	661613.126	10182831.3	80659.622	310	28	109	7
244	9499.487	14360.585	24099.724	664035.921	10031237.12	76011.398	310	28	109	7
248	20841.122	16186.135	24735.258	646821.597	11196597.86	99947.196	310	28	109	7
252	10065.283	15813.088	33908.666	662949.268	9271025.809	69635.895	310	28	109	7
256	7610.324	13261.226	21900.329	653857.516	10287886.49	85423.53	310	28	109	7
260	7223.252	12524.589	22762.382	652968.3	9734685.304	73229.643	310	28	109	7
264	11707.106	15311.874	26781.349	659734.078	10265458.62	86251.642	310	28	109	7
268	7251.08	12293.951	22567.803	648795.286	9477711.528	72022.82	310	28	109	7
272	7309.02	12653.28	21719.445	662185.506	9821763.831	78744.742	310	28	109	7
276	7130.935	11915.397	22238.194	642281.6	9312748.113	81548.653	310	28	109	7
280	8941.366	14961.827	23032.472	648825.218	9924718.3	81223.879	310	28	109	7
284	6990.895	10648.307	23135.438	625348.55	7489033.914	58540.411	310	28	109	7
288	7954.066	14694.078	22364.625	668664.447	11239320.95	93355.889	310	28	109	7
292	6901.297	10198	24010.254	614643.432	6945299.948	54341.238	310	28	109	7
296	7366.517	13732.563	20616.627	654181.716	10951615.86	91010.927	310	28	109	7
300	7631.932	12185.221	23986.257	616425.436	8098762.289	64312.276	310	28	109	7
304	7302.934	13400.91	20856.646	650163.585	10253359.56	85877.087	310	28	109	7
308	9684.041	16110.067	29518.96	618944.998	9538597.555	80969.255	310	28	109	7
312	7616	15327.35	21842.05	659959.509	11496877.15	113390.794	310	28	109	7
316	7477.2	13292.75	23214.212	623256.054	9780962.386	81600.514	310	28	109	7
320	7550.523	14011.091	23312.652	654788.101	9882126.927	95275.566	310	28	109	7
324	9988.283	17971.739	29284.113	655272.281	10566714.17	348.946	310	28	109	7
328	6419.463	13270.84	21650.331	1132417.219	11016371.09	98460.331	310	28	109	7
332	10754.169	16049.518	28143.019	653195.242	10021923.47	78465.943	320	28	109	7
336	13707.131	14596.34	26146.628	1030737.563	9661607.338	74565.648	320	28	109	7
340	8710.81	13629.198	22408.17	840096.026	9631729.765	73812.215	320	28	109	7
344	10090.484	13898.181	22556.669	1020946.585	10279514.92	96656.632	320	28	109	7
348	9323.88	14003.95	21462.67	950981.542	10100450.66	75910.093	320	28	109	7
352	11412.225	16368.24	26243.432	1004797.945	10364154.77	84507.874	320	28	109	7
356	9636.303	13778.92	21304.754	970891.7	9923635.344	77462.107	320	28	109	7
360	9725.697	13671.459	21054.048	1003091.628	10107295.03	78571.561	320	28	109	7
364	9679.148	13477.965	22617.438	978151.873	9195720.103	69217.667	320	28	109	7
368	9704.12	14581.43	21229.391	1004123.604	10371999.23	85358.602	320	28	109	7
372	9528.457	13976.103	22168.34	967340.971	9563579.303	93570.654	320	28	109	7
376	9723.034	14523.541	19891.914	993193.794	10825173.34	84198.399	320	28	109	7
380	9962.438	15163.091	20403.409	989597.732	10639556.42	106865.823	320	28	109	7
384	9472.551	13886.394	19251.425	980303.634	10161122.57	79078.888	320	28	109	7
388	10523.113	15376.907	22061.818	1002434.467	9994656.083	82544.991	320	28	109	7
392	12947.587	20302.636	24675.234	1022357.926	11925568.06	93423.888	320	28	109	7
396	9453.762	13842.469	20141.324	968710.072	9781916.462	78929.24	320	28	109	7
400	9295.964	13011.124	19858.087	952453.737	9107770.261	67563.505	320	28	109	7
404	9745.596	14769.851	21096.627	986378.91	10124504.93	327.053	320	28	109	7
408	9275.244	13593.641	19459.871	949103.475	9282654.174	72963.025	320	28	109	7
412	9478.116	14090.984	18993.886	978154.489	9770346.571	76328.053	320	28	109	7
416	9431.929	14389.554	18924.014	974720.602	67.609	108732.797	320	28	109	7
420	10820.603	16686.979	20682.662	977663.055	10107348.6	81084.762	320	28	109	7
424	9682.908	14284.367	19085.275	972237.854	9643359.336	74829.29	320	28	109	7
428	10466.477	15680.875	23111.571	964766.932	9940718.146	80369.306	320	28	109	7
432	9272.229	13751.46	19143.99	954391.257	9244405.257	84460.691	320	28	109	7
436	9465.579	15021.482	18459.95	961370.965	10575583.16	89634.534	320	28	109	7
440	9522.124	15521.61	18004.192	988846.816	10826042.64	83597.098	320	28	109	7
444	9436.587	14355.427	18215.457	950604.012	9702364.753	78046.521	320	28	109	7
448	11026.229	16365.367	21828.269	953203.792	9726216.431	93226.546	320	28	109	7
452	9414.908	14565.275	17995.034	963640.384	10092227.53	80468.148	320	28	109	7
456	9308.563	14421.688	16983.991	960615.086	10372339.55	83064.32	320	28	109	7
460	9462.301	15658.96	17470.882	959941.49	10842789.46	91125.229	320	28	109	7
464	9100.27	13362.074	17959.44	948065.657	8689723.645	68759.939	320	28	109	7
468	9322.917	14700.421	17705.848	956738.176	9963821.303	78714.13	320	28	109	7
472	23556.487	17411.479	24123.234	942747.569	8941045.752	67170.675	320	28	109	7
476	9203.371	14483.172	17152.092	947664.397	9854474.216	79601.572	320	28	109	7
480	9004.618	12952.468	17821.565	936695.382	8324929.518	61266.815	320	28	109	7
484	10837.971	16675.658	19194.138	947560.85	10413448.78	107194.875	320	28	109	7
488	9030.633	13324.28	17545.8	926705.45	8814335.054	67280.637	320	28	109	7
492	11690.517	17250.472	23303.489	957506.368	9741855.574	77448.802	320	28	109	7
496	9093.612	13028.682	19087.152	919240.598	7672459.243	55477.196	320	28	109	7
500	10286.432	16134.246	19543.64	1043243.376	9973034.072	78931.49	330	28	109	7
504	12213.236	11872.69	21345.995	1352137.372	7120466.35	48565.081	330	28	109	7
508	12718.843	15489.234	20369.186	1421955.951	9554229.956	68628.82	330	28	109	7
512	11856.125	12651.718	20860.679	1288642.225	7570984.745	72038.727	330	28	109	7
516	12698.447	16243.898	19051.051	1442121.433	10553924.21	81739.443	330	28	109	7
520	11819.07	10985.073	20293.556	1289643.787	6254490.325	44315.18	330	28	109	7
524	12535.788	13991.039	18201.892	1420809.267	9114176.658	67253.789	330	28	109	7
528	13162.319	13081.851	21877.506	1332772.357	6876573.771	43634.242	330	28	109	7
532	27474.51	17972.184	20338.554	1419272.434	9446172.517	71111.591	330	28	109	7
536	13927.572	12932.321	23595.587	1332398.148	5848594.941	37960.669	330	28	109	7
540	12898.109	16390.915	19143.581	1447692.033	10281909.91	79982.714	330	28	109	7
544	21772.422	14941.715	23158.614	1355586.442	7553961.866	57806.484	330	28	109	7
548	12057.066	15006.225	17717.621	1405963.467	9616588.03	73495.897	330	28	109	7
552	12431.279	14526.79	17509.766	1400798.336	9536654.987	72896.677	330	28	109	7
556	12347.685	16255.714	17757.344	1409545.181	10159272.39	84597.6	330	28	109	7
560	12132.917	14913.383	17619.59	1340401.28	9572980.641	74153.603	330	28	109	7
564	12238.282	15876.563	17624.305	1416817.403	9915476.181	88039.262	330	28	109	7
568	18978.358	18174.872	22967.259	1422121.892	10151949.04	80976.163	330	28	109	7
572	12092.432	15807.671	16827.326	1394691.582	9941130.111	79460.426	330	28	109	7
576	12077.585	15752.535	16861.57	1408443.207	9946741.801	77968.38	330	28	109	7
580	11900.202	15274.124	16834.773	1391173.059	9503108.785	72831.182	330	28	109	7
584	11848.064	15117.07	16935.83	1385724.861	9138958.316	70543.858	330	28	109	7
588	14164.491	16906.697	20952.309	1369484.317	8978522.636	69486.199	330	28	109	7
592	11878.609	15490.338	16503.103	1413067.207	9508645.85	73355.494	330	28	109	7
596	12673.854	17650.256	18410.389	1446589.214	10708892.85	85830.355	330	28	109	7
600	12129.798	15711.941	17795.236	1365472.964	9390494.75	73653.579	330	28	109	7
604	12307.803	16885.997	17093.655	1385152.485	10226224.92	84132.115	330	28	109	7
608	12192.668	16529.91	17627.709	1383927.353	9734879.866	75111.346	330	28	109	7
612	12610.723	17118.026	17299.591	1396539.856	9891705.759	79640.051	330	28	109	7
616	12006.5	15927.594	18132.441	1371169.143	8967050.615	66527.825	330	28	109	7
620	14078.928	19536.487	23178.071	1403006.248	10159648.55	79763.41	330	28	109	7
624	13079.08	17604.045	19190.647	1373070.925	9238754.396	69726.827	330	28	109	7
628	12289.628	17587.286	18171.05	1410404.977	9798541.085	75454.6	330	28	109	7
632	14173.277	20235.684	20102.952	1387652.77	10079233.77	131137.7	330	28	109	7
636	12281.966	18302.676	17315.5	1386330.455	10495802.67	85707.34	330	28	109	7
640	15561.735	19612.543	21980.899	1398104.232	10035495.4	77344.689	330	28	109	7
644	14227.419	17258.664	17266.224	1372338.731	9366540.486	71104.817	330	28	109	7
648	12142.55	17407.063	17391.13	1395416.951	9762711.661	75228.602	330	28	109	7
652	12385.329	19022.564	16927.459	1400347.865	11269046.93	96330.82	330	28	109	7
656	11930.329	16062.969	16949.975	1340945.415	8784711.839	74613.778	330	28	109	7
660	12104.007	17218.423	16937.836	1356808.382	9562726.148	81690.177	330	28	109	7
664	11842.621	16589.128	16141.212	1364724.241	9416803.075	73114.196	330	28	109	7
668	18165.803	17215.556	22127.269	2116274.208	9051408.381	59407.413	340	28	109	7
672	16616.569	19149.432	20443.297	1781914.35	9044035.695	63979.268	340	28	109	7
676	17819.583	16667.426	22968.551	1973890.017	8100964.797	62622.624	340	28	109	7
680	19322.255	21686.711	28349.372	1999981.717	9328456.457	65315.156	340	28	109	7
684	24946.489	16727.288	23198.533	1954593.207	7793861.395	48955.192	340	28	109	7
688	16127.012	15644.726	19278.702	1952314.15	8567001.14	61031.931	340	28	109	7
692	16649.67	18542.538	21216.331	2024983.856	9881429.623	68464.139	340	28	109	7
696	16126.275	16416.084	19029.041	1978177.943	8831999.888	60771.675	340	28	109	7
700	15844.574	15425.651	18615.381	1954869.451	8546081.88	57455.708	340	28	109	7
704	15878.898	16216.35	18767.783	1976777.972	8.614	91839.992	340	28	109	7
708	18015.488	19735.815	24904.304	1988346.999	8476488.529	55041.615	340	28	109	7
712	16149.75	17844.85	18387.5	2046951.788	9664807.014	69910.219	340	28	109	7
716	15333.045	14674.243	18869.075	1908740.72	7425929.166	49351.532	340	28	109	7
720	15747.703	16088.007	18511.457	1963341.882	8347671.882	57700.298	340	28	109	7
724	15065.803	13195.589	18813.358	1848202.725	6514223.972	41689.084	340	28	109	7
728	16665.318	17916.636	19974.241	1973175.63	8884562.756	61809.437	340	28	109	7
732	14901.85	13104.743	18677.957	1870779.373	6103085.661	35524.062	340	28	109	7
736	40061.235	20561.271	23263.156	1939754.018	8636168.834	65568.868	340	28	109	7
740	15160.544	15109.498	18019.392	1884302.855	7683973.703	56620.664	340	28	109	7
744	15913.029	17449.85	17623.016	1971580.848	9516475.626	74572.7	340	28	109	7
748	14917.002	12960.996	18155.321	1799221.3	6302957.473	43511.61	340	28	109	7
752	15625.871	18372.78	17505.081	1975091.987	9743787.197	74896.116	340	28	109	7
756	14994.247	13248.697	18802.651	1733995.017	6290635.014	53035.082	340	28	109	7
760	16495.841	18198.35	19621.579	1925930.764	8839365.711	65399.592	340	28	109	7
764	16289.627	15884.753	19650.114	1797816.304	7049167.041	66002.448	340	28	109	7
768	15267.881	17864.474	17337.763	1921607.148	9309044.058	71636.487	340	28	109	7
772	16866.909	18158.097	20734.182	1826766.834	8046273.698	79425.561	340	28	109	7
776	15510.214	17706.114	17471.671	1918777.985	9068040.712	67695.142	340	28	109	7
780	20938.008	19232.44	20126.764	1864601.447	8580546.547	64353.489	340	28	109	7
784	15478.075	18784.159	17798.253	1921998.85	9454233.027	73285.563	340	28	109	7
788	15883.148	19971.177	17476.926	1970370.673	10403136.33	83809.645	340	28	109	7
792	15445.624	18676.907	17743.483	1922872.732	9342129.925	103358.331	340	28	109	7
796	15535.551	19287.324	17130.007	1947873.885	9880398.656	79782.927	340	28	109	7
800	15356.132	19500.785	17340.945	1951344.044	9605520.92	99758.146	340	28	109	7
804	15010.22	17444.355	16755.609	1906928.647	8909042.992	67923.335	340	28	109	7
808	15294.544	18789.906	16944.258	1911965.94	9411730.488	70959.461	340	28	109	7
812	15551.49	18319.086	16705.982	1866908.512	9220531.511	72743.428	340	28	109	7
816	13131.966	14370.788	16341.061	592623.93	8589710.87	77324.316	340	28	109	7
820	17079.088	19597.56	23212.502	1876894.617	8893491.417	68444.091	340	28	109	7
824	15095.833	18702.602	16934.166	1863497.94	9578758.956	80332.502	340	28	109	7
828	15310.007	18085.04	17087.957	1920210.176	8843408.426	68120.611	340	28	109	7
832	17026.57	18889.379	17862.708	2134237.81	9272823.417	70880.066	350	28	109	7
836	19812.135	17758.089	20093.013	2620337.125	8886147.329	62389.082	350	28	109	7
840	21285.504	18867.458	20623.316	2834928.47	9286307.308	61439.962	350	28	109	7
844	20083.075	18655.479	20157.771	2584543.001	9542724.459	86190.822	350	28	109	7
848	22518.873	21331.895	24336.623	2785324.757	9221544	64785.593	350	28	109	7
852	20355.47	17570.764	20500.994	2673998.989	8029025.337	52265.492	350	28	109	7
856	20762.68	18700.617	20965.076	2718294.719	8968915.206	67753.853	350	28	109	7
860	20472.348	17898.661	20543.945	2677320.219	8201586.96	55218.139	350	28	109	7
864	20328.089	18030.654	20572.996	2677930.486	8201432.192	54106.275	350	28	109	7
868	20547.91	18369.674	20218.841	2654694.298	8768417.449	63015.235	350	28	109	7
872	20084.306	16137.74	20546.983	2544253.016	7248000.605	46248.544	350	28	109	7
876	21914.539	19192.005	22177.543	2583590.978	7701883.264	52142.309	350	28	109	7
880	20329.837	17708.09	20367.798	2649971.434	7994527.045	55238.944	350	28	109	7
884	20608.714	18128.703	21241.923	2607763.303	8223753.881	57626.612	350	28	109	7
888	20220.439	18706.346	20006.612	2683752.82	8477859.327	55188.383	350	28	109	7
892	22478	20397.231	22147.269	2669922.903	8584821.179	61500.187	350	28	109	7
896	20377.527	18164.057	19951.7	2623917.366	8083130.076	53526.786	350	28	109	7
900	20806.417	19172.297	22687.819	2574563.107	7890107.49	54781.718	350	28	109	7
904	21653.289	20180.582	21535.305	2688631.301	8134417.363	78403.838	350	28	109	7
908	20674.531	19694.045	19542.651	2667531.659	8874483.962	62007.06	350	28	109	7
912	19828.187	17419.7	20054.573	2559277.477	7638529.144	103018.46	350	28	109	7
916	20487.006	18623.642	19877.934	2583352.059	8281121.384	61251.252	350	28	109	7
920	24976.443	18932.008	23616.653	2553728.869	7680137.29	56200.758	350	28	109	7
924	20266.121	20026.06	19722.468	2659857.086	8910080.599	66404.475	350	28	109	7
928	19857.227	17320.836	20338.709	2562225.227	7037330.37	43026.365	350	28	109	7
