	ketene (A)	ethanol (A)	Acetaldehyde (A)	acetone (A)	Acetic acid (A)	acetic anhydride (A)				
Time	Peak area	Peak area	Peak area	Peak area	Peak area	Peak area	T	N2	H2	aa
0	7323.828	3602.936	25479.607	39180.145	257230.135	3532.942	300	109	28	7
4	5485.172	3131.834	28306.299	19886.121	165685.601	675.834	300	109	28	7
8	8533.372	5603.975	20079.417	597311.452	8904759.132	30391.843	300	109	28	7
12	9861.58	10033.098	17297.444	610398.927	10236300.56	66069.814	300	109	28	7
16	8070.41	8503.423	14565.616	600073.343	8590976.435	52084.416	300	109	28	7
20	8122.944	9978.909	14068.687	617372.647	10465304.06	67097.724	300	109	28	7
24	8245	9673.786	13588.418	597246.754	9163620.038	61519.808	300	109	28	7
28	8696.142	10661.125	14918.088	614764.094	10389276.04	69058.339	300	109	28	7
32	7640.119	9546.713	12258.344	584975.208	10002095.83	71789.803	300	109	28	7
36	7884.814	10509.836	11787.997	619641.094	11127413.67	74846.376	300	109	28	7
40	7526.001	9548.333	12314.455	588318.975	9403065.282	70659.995	300	109	28	7
44	10498.267	14428.989	18587.735	599261.103	10547337.25	71644.5	300	109	28	7
48	7739.763	10075.457	12023.855	574851.65	10119027.95	100400.902	300	109	28	7
52	15227.833	13308.325	14654.717	611717.177	11448734.86	80793.33	300	109	28	7
56	9401.158	12122.171	15231.474	580971.306	10239203.63	67791.016	300	109	28	7
60	6583.013	9156.713	11548.116	315098.399	10507614.12	71838.616	300	109	28	7
64	9684.751	13184.104	16853.939	588399.427	10228143.28	76115.701	300	109	28	7
68	7928.847	12161.372	12744.833	593610.136	11071357.49	76331.127	300	109	28	7
72	9332.924	13314.432	15890.685	570492.02	9578756.571	65958.268	300	109	28	7
76	7606.009	10891.86	11127.021	581446.106	10529830.64	74785.827	300	109	28	7
80	8159.056	12212.13	12773.565	574656.377	11396675.48	79078.63	300	109	28	7
84	7894.408	12497.771	11649.954	584062.527	1098.603	87431.828	300	109	28	7
88	14375.741	9456.495	10988.55	579347.417	10655937.68	74537.929	300	109	28	7
92	7625.712	11432.721	11517.557	568616.038	10645230.12	94681.787	300	109	28	7
96	9842.497	14212.729	18533.512	567067.97	10271139.23	73873.071	300	109	28	7
100	7606.299	11798.469	11460.029	566568.22	11136448.01	87879.163	300	109	28	7
104	8866.132	13339.83	15415.978	569353.273	10547627.86	75517.747	300	109	28	7
108	9189.133	13730.33	13735.119	565917.36	11071583.97	81230.582	300	109	28	7
112	7807.352	12550.77	12085.061	565262.381	11149427.84	81883.978	300	109	28	7
116	10131.321	14454.319	16619.003	556128.566	11415880.08	81775.404	300	109	28	7
120	7571.529	11418.797	11148.854	548774.263	10835279.45	80397.032	300	109	28	7
124	12162.733	13103.074	14025.36	550359.219	11263599.84	81087.174	300	109	28	7
128	7664.182	10591.463	10943.255	524710.602	9888858.111	71903.363	300	109	28	7
132	7487.097	11721.05	11402.334	541829.508	11679363.84	89297.351	300	109	28	7
136	8018.808	10384.391	11134.087	536032.842	9761839.822	71515.858	300	109	28	7
140	7326.276	10976.399	10145.924	541870.487	11285868.29	82895.519	300	109	28	7
144	7435.623	10998.817	11007.1	537174.974	10386001.88	88361.154	300	109	28	7
148	9710.891	14777.105	15939.063	546545.973	11040159.66	81006.318	300	109	28	7
152	8000.912	11929.176	11963.679	531351.813	10548600.96	85117.513	300	109	28	7
156	7402.921	11529.014	11620.065	534953.665	10310076.82	72596.33	300	109	28	7
160	8531.218	12808.777	12499.295	529124.283	10656010.22	82935.092	300	109	28	7
164	7429.945	11158.677	11344.036	527646.359	9772504.569	68690.858	300	109	28	7
168	8106.091	10806.081	11824.928	611691.257	10036945.97	72190.72	310	109	28	7
172	10020.683	10567.415	12685.669	840418.735	10619058.31	66130.252	310	109	28	7
176	11524.901	11169.624	15196.499	786505.935	9492340.244	63676.919	310	109	28	7
180	9736.59	10190.052	13102.484	820189.385	9488263.629	58763.177	310	109	28	7
184	10286.525	10814.5	13154.654	860509.038	10019823.32	65497.303	310	109	28	7
188	9879.506	11281.25	12658.267	828306.267	10735641.11	108488.087	310	109	28	7
192	10453.617	10517.72	12630.317	851077.693	9692008.736	67236.735	310	109	28	7
196	10137.872	11323.797	12773.606	835640.25	11028117.81	92517.404	310	109	28	7
200	17063.847	13769.097	16639.155	833986.009	9444380.024	64086.566	310	109	28	7
204	11207.712	10707.596	12770.374	825297.07	9843777.33	77531.028	310	109	28	7
208	10921.237	12006.087	14930.158	852354.2	9835786.659	65411.997	310	109	28	7
212	11443.696	12820.123	15284.316	836165.03	10197580.82	78703.931	310	109	28	7
216	9882.52	10660.409	12493.046	823062.135	10114023.07	67820.314	310	109	28	7
220	12322.203	12200.497	17942.644	829893.58	9183537.932	60169.193	310	109	28	7
224	9867.182	10875.7	12638.095	832709.543	10039541.31	66614.219	310	109	28	7
228	12766.514	11100.395	15137.177	830100.074	8692817.848	54401.457	310	109	28	7
232	9816.966	10532.63	12066.051	817115.677	9746037.99	65915.076	310	109	28	7
236	9804.905	10588.345	11672.426	833042.54	10553646.52	68589.194	310	109	28	7
240	9850.817	10965.964	12490.164	822249.834	10113879.71	92569.302	310	109	28	7
244	10343.93	10499.84	12074.148	819239.22	9378740.098	63341.3	310	109	28	7
248	9917.422	11273.978	12076.455	814046.078	10486816.76	85099.88	310	109	28	7
252	13003.154	14162.472	19402.146	844523.794	9801136.358	60884.244	310	109	28	7
256	17664.708	12431.141	14809.675	818820.916	10280732.87	67740.249	310	109	28	7
260	9582.418	9556.21	12773.872	788920.803	8508642.273	55094.752	310	109	28	7
264	11735.91	12563.059	15487.347	819124.601	9884513.478	77390.365	310	109	28	7
268	9726.548	10052.964	12383.206	805541.124	1227.814	54693.59	310	109	28	7
272	9898.914	11121.536	12720.573	802923.281	10180638.34	68450.98	310	109	28	7
276	9703.584	10049.382	12328.719	788076.903	8952465.188	58192.642	310	109	28	7
280	16745.83	13383.548	14526.896	814596.027	10434988.99	74101.78	310	109	28	7
284	9606.589	9928.752	12393.514	781212.109	8795095.67	64575.738	310	109	28	7
288	9887.613	10869.978	11852.166	812449.776	9926839.417	69340.403	310	109	28	7
292	9652.933	10204.493	12379.034	801409.443	9012770.878	81608.287	310	109	28	7
296	12634.193	13755.553	19428.951	812425.995	10210498.29	69158.141	310	109	28	7
300	9877.039	9978.091	12715.144	773584.478	7770170.111	47797.741	310	109	28	7
304	10753.172	13347.541	13191.866	804210.227	10925032.13	82256.142	310	109	28	7
308	11241.433	10840.956	13888.56	757633.072	7885832.166	53658.487	310	109	28	7
312	9756.982	11221.1	11925.428	801539.304	10578655.69	75080.456	310	109	28	7
316	11412.738	11929.7	15017.778	791248.829	8703422.175	63812.084	310	109	28	7
320	12470.578	11378.548	12489.626	800699.492	10178560.53	71151.728	310	109	28	7
324	10251.164	11502.488	14157.865	772728.839	9426336.923	66344.662	310	109	28	7
328	10401.457	12077.989	12760.129	802007.35	10386870.04	89581.432	310	109	28	7
332	10056.185	11735.29	12473.119	793873.948	9942645.951	70190.245	320	109	28	7
336	15352.879	12223.133	16537.041	1364167.583	10351147.53	76418.836	320	109	28	7
340	15131.844	15860.936	21473.953	1061574.952	9877263.604	62987.784	320	109	28	7
344	14676.984	12946.663	15993.576	1288736.193	10478222.42	63896.592	320	109	28	7
348	13272.851	11233.903	14889.42	1157820.546	9347032.567	57182.839	320	109	28	7
352	14649.444	12424.466	16431.409	1235225.898	9828665.997	63257.354	320	109	28	7
356	13309.041	10944.398	14818.042	1199186.109	9315986.411	57076.384	320	109	28	7
360	24114.605	12854.373	17749.91	1224060.165	9517834.546	67828.7	320	109	28	7
364	13318.362	11056.448	14119.587	1212272.685	9463627.852	58011.835	320	109	28	7
368	14454.894	12782.433	17761.682	1261236.849	10637080.16	66923.013	320	109	28	7
372	13332.664	11406.008	13783.046	1223513.415	10177869.46	73363.298	320	109	28	7
376	13454.113	11292.788	13737.982	1247000.663	10134703.51	63061.836	320	109	28	7
380	13190.488	10962.055	14022.656	1206898.367	9717510.218	88585.726	320	109	28	7
384	15817.238	14789.157	22036.702	1232804.097	10523587.32	66487.568	320	109	28	7
388	13378.561	11576.737	14562.671	1221902.737	9502263.667	120179.551	320	109	28	7
392	14566.622	13249.813	18022.235	1225114.086	10000848.4	62344.55	320	109	28	7
396	14734.292	13241.267	17306.373	1204612.937	9857019.67	63256.451	320	109	28	7
400	13136.903	11338.689	13197.005	1217508.829	10211589.26	64154.926	320	109	28	7
404	34327.509	14394.784	15541.898	1253516.644	11564300.91	75690.069	320	109	28	7
408	12951.223	10955.873	13780.953	1205044.841	9443726.249	57739.864	320	109	28	7
412	14931.208	10994.415	13546.963	1223341.418	9518574.115	59362.172	320	109	28	7
416	12962.744	10967.1	14038.706	1195375.083	9094204.831	53323.108	320	109	28	7
420	13317.422	11423.153	13759.846	1220811.499	9482828.087	59512.426	320	109	28	7
424	13111.155	11818.95	14230.974	1202964.67	9503423.233	83236.052	320	109	28	7
428	16249.659	16076.015	19963.305	1204584.397	10081738.14	63515.589	320	109	28	7
432	13295.242	11786.045	14174.31	1188059.63	9551675.368	100535.315	320	109	28	7
436	13247.376	12183.77	14283.9	1197434.146	9909378.109	65395.695	320	109	28	7
440	14095.527	13768.556	14898.018	1198204.806	10005375.06	60721.364	320	109	28	7
444	13149.724	12438.55	13617.033	1209270.372	10441038.14	68983.289	320	109	28	7
448	14402.422	11669.527	16492.056	1166837.849	7985238.277	56742.912	320	109	28	7
452	12988.515	11553.569	13230.934	1186656.058	9796199.417	67782.648	320	109	28	7
456	21586.473	14854.159	15744.618	1211021.382	10292751.78	66101.347	320	109	28	7
460	12987.436	12158.049	13061.459	1193289.568	10542334.46	70817.68	320	109	28	7
464	12997.765	11142.732	14338.828	1162981.007	8447556.005	51925.11	320	109	28	7
468	12911.924	11908.479	13100.877	1194704.287	9947234.505	73079.861	320	109	28	7
472	12535.907	9712.943	2.668	1152733.15	7960227.248	48796.66	320	109	28	7
476	12666.932	11423.868	13004.125	1152077.4	9507188.774	114632.936	320	109	28	7
480	15458.602	13870.118	20359.249	1174173.173	8862083.182	57113.2	320	109	28	7
484	12782.178	11583.898	13025.556	1185192.746	9720188.619	62151.919	320	109	28	7
488	12496.204	9772.916	13246.28	1109242.9	7677752.416	48918.413	320	109	28	7
492	14081.297	13643.697	16112.392	1189055.443	10544181.44	74341.78	320	109	28	7
496	12402.304	9333.761	12960.26	1112671.423	7016449.66	44404.285	320	109	28	7
500	24643.657	14277.347	16853.533	1444788.169	10190289.87	64783.581	330	109	28	7
504	16407.182	10535.262	16004.656	1629294.673	7791304.6	414.455	330	109	28	7
508	22604.913	13849.789	19470.956	1810865.258	9109402.455	51229.699	330	109	28	7
512	16253.297	10401.628	15672.843	1609355.977	7237813.26	40996.112	330	109	28	7
516	18062.745	11724.746	16288.296	1826014.917	9004076.187	49709.65	330	109	28	7
520	16764.015	10068.536	15571.515	1652602.012	7118316.078	56789.662	330	109	28	7
524	17454.453	11032.273	15499.161	1771416.16	8704720.787	48588.96	330	109	28	7
528	17402.02	10677.859	15952.171	1739612	8050209.085	4205.456	330	109	28	7
532	19589.297	14777.224	20066.814	1779486.78	8858434.774	69215.901	330	109	28	7
536	17202.067	9995.467	16283.498	1657414.9	6821141.918	41202.684	330	109	28	7
540	18713.901	14580.766	18213.681	1799530.554	9851513.432	55645.633	330	109	28	7
544	18402.742	11719.002	17887.063	1602357.941	6874115.247	36606.378	330	109	28	7
548	17622.556	13024.955	15956.168	1790220.084	9644825.008	57365.287	330	109	28	7
552	17288.362	11506.328	15933.96	1697639.231	8089167.471	48211.545	330	109	28	7
556	17725.873	13447.139	15464.346	1771428.907	10368032.4	64440.506	330	109	28	7
560	23579.154	12235.973	17913.884	1650813.712	7152207.116	39126.105	330	109	28	7
564	17342.513	12787.214	15250.156	1746589.513	9923866.995	58935.871	330	109	28	7
568	16975.218	10437.685	14752.892	1600281.756	7825229.112	46848.063	330	109	28	7
572	17223.577	12372.141	15136.253	1729008.777	9458630.271	73040.156	330	109	28	7
576	16979.24	11385.56	14388.45	1706195.089	9298663.696	72097.142	330	109	28	7
580	17428.104	12814.618	14826.508	1802584.4	9958868.657	6548.532	330	109	28	7
584	19589.962	15472.008	21112.571	1719162.273	8989260.516	51610.593	330	109	28	7
588	17192.767	12833.558	14946.346	1778361.033	9704732.85	58268.85	330	109	28	7
592	17026.158	12451.403	14769.614	1725205.578	9407529.594	56562.401	330	109	28	7
596	18774.648	14762.661	17479.478	1761288.125	10358311.18	69233.888	330	109	28	7
600	16686.792	11833.931	14197.716	1691393.286	8779335.132	51407.111	330	109	28	7
604	21143.05	14156.12	15955.622	1733518.147	10784811.87	69303.492	330	109	28	7
608	16934.501	12826.109	14665.99	1727786.16	9900197.13	63286.223	330	109	28	7
612	17124.016	12159.838	14461.116	1755890.524	9494300.321	58756.867	330	109	28	7
616	16806.516	12316.216	14762.42	1697800.978	8944994.832	56297.677	330	109	28	7
620	17013.747	12888.056	14197.53	1732320.201	9963399.134	61338.137	330	109	28	7
624	16787.988	12103.206	14879.909	1682641.363	8588064.904	62668.27	330	109	28	7
628	19003.66	16275.947	19899.296	1726085.937	9332676.081	55029.091	330	109	28	7
632	17712.935	13737.181	14962.513	1706341.211	9128540.064	57017.047	330	109	28	7
636	17000.413	13211.905	15169.05	1727431.984	9433985.064	57742.599	330	109	28	7
640	27998.298	15925.158	17988.083	1728696.916	9968240.209	63049.8	330	109	28	7
644	17216.781	12818.86	14505.023	1699823.42	9205279.235	53629.415	330	109	28	7
648	17683.768	13580.808	15183.503	1712672.573	9718032.458	61118.284	330	109	28	7
652	16823.072	13268.061	14282.792	1701266.821	9853549.28	60767.354	330	109	28	7
656	17031.274	13401.907	15676.529	1732644.086	9677184.506	58635.003	330	109	28	7
660	16360.442	11986.938	13575.935	1673645.216	8957422.911	74050.718	330	109	28	7
664	16609.541	12606.431	13454.307	1690017.542	9546046.257	64838.412	340	109	28	7
668	25189.824	11579.952	19017.641	2686115.01	7630413.502	57175.727	340	109	28	7
672	23493.189	15993.4	21980.099	2255110.958	8784856.812	49755.185	340	109	28	7
676	22596.03	11706.62	17118.83	2413299.233	8117645.898	44291.197	340	109	28	7
680	24178.729	14122.716	19041.795	2511849.868	8551440.271	45752.35	340	109	28	7
684	43189.685	13271.393	18407.769	2411349.74	7617816.428	37921.503	340	109	28	7
688	22987.345	13003.467	17381.72	2509604.628	8806320.809	46429.141	340	109	28	7
692	22937.297	11807.802	17177.075	2478966.06	7977487.581	40400.914	340	109	28	7
696	22460.945	12742.456	17459.648	2467680.531	8439011.261	44214.948	340	109	28	7
700	23003.382	12604.31	17892.112	2522354.158	7945606.56	37553.94	340	109	28	7
704	22512.954	12906.428	16484.428	2495951.229	8922991.23	47311.203	340	109	28	7
708	22612.028	12390.165	16912.814	2502529.703	8195726.728	40999.674	340	109	28	7
712	22684.993	13535.653	17312.029	2481746.841	8910367.633	73999.475	340	109	28	7
716	23869.387	13097.332	18979.083	2376294.629	7103427.399	36857.527	340	109	28	7
720	22656.409	13967.548	17099.5	2483462.617	9103919.229	1996.033	340	109	28	7
724	24233.714	14621.695	20109.301	2406479.374	7351839.82	33016.714	340	109	28	7
728	57718.615	14740.2	17329.826	2457414.025	9212042.217	48390.676	340	109	28	7
732	22247.551	12423.201	17064.448	2464535.773	7728536.916	36846.649	340	109	28	7
736	61228.684	15436.199	17977.896	2439427.329	8718615.641	53547.43	340	109	28	7
740	21628.907	10669.58	16529.131	2314180.52	6316525.953	29380.425	340	109	28	7
744	24297.285	16056.719	18467.782	2470057.259	8878171.793	60174.607	340	109	28	7
748	21822.637	11765.703	16678.434	2386602	7136807.019	32191.5	340	109	28	7
752	23025.787	14585.356	17312.982	2429820.049	8608379.429	45965.763	340	109	28	7
756	21443.78	11929.783	16935.636	2320973	6920706.299	32750.382	340	109	28	7
760	22405.805	14010.695	16489.059	2464351.667	8964709.22	50064.197	340	109	28	7
764	19175.501	8477.913	16020.149	694286.6	7051717.849	59911.672	340	109	28	7
768	25092.364	17646.685	19671.681	2457743.015	8943602.962	46658.501	340	109	28	7
772	28932.774	11577.662	16632.083	2242677.738	6886788.205	43449.459	340	109	28	7
776	22152.272	14222.933	16012.233	2426129.725	9360983.82	50308.543	340	109	28	7
780	23215.48	15320.239	19029.164	2332710.774	8956635.008	55132.048	340	109	28	7
784	22001.209	14070.781	15786.864	2407614.842	9296144.445	52982.832	340	109	28	7
788	26899.497	14998.635	18575.784	2354011.103	8230396.295	47035.4	340	109	28	7
792	22081.584	13764.889	16080.27	2407954.925	8538056.874	47988.04	340	109	28	7
796	21681.958	13441.076	16008.841	2362579.384	8529881.79	51077.539	340	109	28	7
800	21793.239	13947.552	16201.099	2399115.6	8782819.408	59494.972	340	109	28	7
804	22153.076	14738.78	15698.432	2442258.304	9993807.552	65853.65	340	109	28	7
808	22186.692	14065.038	15909.002	2436508.4	8986465.988	56795.118	340	109	28	7
812	23101.559	15785.915	17515.607	2391629.7	8646144.43	47659.403	340	109	28	7
816	23279.997	15826.686	17586.986	2422418.894	8715807.32	46607.075	340	109	28	7
820	21805.313	14205.379	16307.006	2339253.175	8688376.028	48988.6	340	109	28	7
824	22205.874	15322.076	16492.587	2421392.315	9488918.103	52868.194	340	109	28	7
828	21697.944	14065.53	16261.883	2334423.323	8355720.599	47758.229	350	109	28	7
832	28467.981	15125.598	20119.195	2776119.791	8194514.903	42318.577	350	109	28	7
836	27771.624	14299.936	19379.759	3179842.443	8317823.661	38779.712	350	109	28	7
840	30648.031	12528.119	20785.388	3393877.369	6886609.283	28762.873	350	109	28	7
844	28731.843	13587.125	19686.86	3248276.875	7608155.405	49639.521	350	109	28	7
848	31566.528	15319.694	22427.942	3442315.261	7104006.301	29220.378	350	109	28	7
852	30004.465	13950.613	20523.422	3373015.214	7502783.607	36144.788	350	109	28	7
856	34348.987	15565.018	23458.025	3325542.189	6944987.271	28144.509	350	109	28	7
860	31461.253	15125.429	20796.818	3364884.19	7521259.63	31477.406	350	109	28	7
864	29435.315	13696.298	20183.074	3387221.937	7080895.643	28154.8	350	109	28	7
868	30889.629	15335.834	21396.763	3332087.8	7220570.757	36925.219	350	109	28	7
872	29167.266	13348.051	19395.761	3331176.152	7215490.587	30117.492	350	109	28	7
876	33864.377	17131.334	21570.703	3452011.591	8509459.088	39616.676	350	109	28	7
880	28357.374	12089.79	19864.986	3200610.793	5877863.653	22369.438	350	109	28	7
884	29750.825	14688.707	20135.004	3380116.995	8036363.601	39262.095	350	109	28	7
888	28357.497	12441.05	19338.387	3175327.187	6179365.205	36189.217	350	109	28	7
892	42493.13	17857.174	24237.419	3452601.375	8158387.577	49347.296	350	109	28	7
896	28589.229	12886.278	19727.89	3216630.113	6240148.777	40685.865	350	109	28	7
900	30157.872	16333.74	20750.513	3367403.659	8162521.498	39220.473	350	109	28	7
904	28894.935	13001.309	20240.254	3071822.936	5648666.531	22011.713	350	109	28	7
908	29075.581	14416.928	19488.987	3295354.372	7795468.153	38350.208	350	109	28	7
912	29391.6	13344.521	20304.507	3115553.061	5592383.258	31707.742	350	109	28	7
916	29337.564	15338.623	19461.86	3345327.989	8184852.759	39581.025	350	109	28	7
920	28125.927	11870.45	19541.527	3058169.638	5204020.546	21471.675	350	109	28	7
924	28857.233	14680.193	18835.031	3285534.301	7876826.894	38069.158	350	109	28	7
928	27860.748	11810.869	20082.518	2937878.794	5390043.407	25047.503	350	109	28	7
932	28490.392	14496.516	19323.842	3222750.022	7406212.988	56616.23	350	109	28	7
936	30577.683	16213.909	21578.559	3250619.147	7099742.059	34538.826	350	109	28	7
940	29453.966	15830.679	19696.911	3337889.127	8605221.208	45992.81	350	109	28	7
944	29650.519	15971.109	21527.31	3321268.254	7558487.61	36237.247	350	109	28	7
948	30062.32	17166.055	20712.257	3280851.253	8574555.139	43609.633	350	109	28	7
952	28718.872	14362.275	19714.861	3213333.748	7297747.215	34501.671	350	109	28	7
956	30689.378	17798.229	20575.389	3358808.605	8300954.284	43631.707	350	109	28	7
960	28820.014	15319.852	19722.974	3196653.656	7958492.046	39035.179	350	109	28	7
964	29641.539	16673.555	19796.573	3259917.609	8170735.753	39572.022	350	109	28	7
968	28725.918	14874.32	19173.386	3174759.639	7596695.61	36746.89	350	109	28	7
972	29644.027	16537.024	20153.407	3270651.864	8263265.782	41997.805	350	109	28	7
976	28882.231	15452.295	19336.153	3176384.015	7768625.454	45212.84	350	109	28	7
980	29388.625	16100.925	18920.451	3303620.378	8258221.275	43821.468	350	109	28	7
984	29094.225	15650.508	19093.742	3229988.08	8061705.731	50463.509	350	109	28	7
988	30993.414	18659.104	21416.713	3229434.338	8264007.814	40422.512	350	109	28	7
992	29035.283	16170.161	18762.647	3261543.423	8348387.647	46763.586	350	109	28	7
